File: Exp-Data_Prepared-Final/FTT-White/2018/Balsa_50kW_hor_Average.csv
Time (s),HRRPUA (kW/m2),Uc HRRPUA (kW/m2)
1.0,-0.801393,
3.0,-0.500745,-1.50327
5.0,0.0674498,2.61156
7.0,0.0808771,2.12825
9.0,0.712552,1.73399
11.0,0.0773448,2.86611
13.0,0.522667,2.08059
15.0,0.856579,2.83615
17.0,2.66053,12.7525
19.0,27.0362,47.7182
21.0,77.7151,61.9298
23.0,133.277,39.6821
25.0,162.696,9.77367
27.0,171.066,10.231
29.0,165.453,19.7006
31.0,154.073,22.0271
33.0,140.041,18.7559
35.0,128.006,15.9095
37.0,119.383,15.3561
39.0,110.963,12.9633
41.0,104.485,12.7418
43.0,99.9597,12.8655
45.0,94.8881,11.1381
47.0,90.8527,11.7054
49.0,88.5392,10.3037
51.0,86.0097,8.28924
53.0,82.981,8.85449
55.0,82.455,8.1053
57.0,80.0468,6.93763
59.0,78.1478,7.73779
61.0,77.2187,6.86852
63.0,74.5874,6.33378
65.0,73.2808,6.1431
67.0,71.8603,5.69015
69.0,70.3237,4.98607
71.0,69.9351,6.1893
73.0,70.1121,5.76947
75.0,68.2987,5.33146
77.0,66.5328,6.4533
79.0,66.0565,7.01459
81.0,63.7972,5.17714
83.0,63.5012,6.71929
85.0,63.6572,6.67576
87.0,62.7744,4.94788
89.0,62.1987,6.55009
91.0,61.9063,6.34506
93.0,61.3299,5.73971
95.0,60.4762,6.88123
97.0,60.3362,7.65953
99.0,59.2223,5.96027
101.0,59.428,7.32354
103.0,59.322,7.29394
105.0,59.1081,6.51435
107.0,60.1177,6.61004
109.0,60.0686,7.1676
111.0,58.4796,6.72332
113.0,60.3946,7.19675
115.0,60.1265,7.80278
117.0,59.4361,8.41144
119.0,60.6303,8.84515
121.0,60.168,9.52956
123.0,60.8049,9.4288
125.0,62.8362,9.29557
127.0,61.6446,10.3856
129.0,61.7656,10.0699
131.0,62.9904,9.3291
133.0,62.81,11.0435
135.0,62.3926,9.65512
137.0,63.8736,9.12949
139.0,64.2464,10.4635
141.0,64.0743,7.88393
143.0,64.2073,8.65284
145.0,64.3805,9.85863
147.0,65.3575,8.69478
149.0,64.9381,8.62444
151.0,65.1297,8.56616
153.0,64.7384,6.42709
155.0,64.1506,6.58766
157.0,62.5295,6.81388
159.0,63.1483,5.087
161.0,61.6786,5.33348
163.0,59.912,4.17984
165.0,60.6905,4.84666
167.0,60.2291,4.89217
169.0,59.3989,5.55645
171.0,60.2567,7.38848
173.0,58.6178,6.36099
175.0,57.5517,7.91532
177.0,57.8289,9.54192
179.0,56.8257,8.95173
181.0,56.125,10.5123
183.0,57.097,11.7683
185.0,56.3542,10.0913
187.0,55.6251,12.3445
189.0,55.7108,13.8163
191.0,54.9072,12.7021
193.0,53.932,15.2117
195.0,54.1055,15.4953
197.0,53.5748,13.5689
199.0,53.9452,16.4261
201.0,54.0341,16.2275
203.0,52.8073,14.7054
205.0,52.4839,17.6671
207.0,52.2383,16.9556
209.0,50.7664,15.8862
211.0,50.9865,18.9532
213.0,50.9036,17.3061
215.0,50.0542,16.4752
217.0,50.7547,19.4823
219.0,49.902,18.2837
221.0,47.947,17.6345
223.0,47.9174,20.1052
225.0,47.8728,18.7808
227.0,47.1796,18.4601
229.0,47.4226,20.8009
231.0,46.8974,18.8608
233.0,46.1995,18.7831
235.0,47.4664,20.6831
237.0,46.1916,18.2246
239.0,44.995,18.5977
241.0,44.9351,19.7423
243.0,44.4756,17.5057
245.0,43.8575,17.7063
247.0,44.6713,18.1787
249.0,43.3301,15.0902
251.0,42.713,16.5721
253.0,43.0763,17.1583
255.0,41.6876,14.4914
257.0,41.0997,16.2388
259.0,41.5116,16.6547
261.0,40.5056,13.6801
263.0,40.6817,15.479
265.0,40.8412,15.3643
267.0,39.6684,12.967
269.0,38.8192,14.6151
271.0,39.4174,14.2816
273.0,38.1744,11.9642
275.0,39.1702,15.6967
277.0,38.9252,14.8747
279.0,38.236,12.7306
281.0,38.7974,14.7507
283.0,38.8582,13.3529
285.0,37.9046,11.9818
287.0,38.7085,14.119
289.0,38.7965,12.5016
291.0,38.4429,13.0135
293.0,38.9904,16.1341
295.0,38.6301,14.5662
297.0,38.3198,14.5565
299.0,39.4343,16.5869
301.0,38.7241,14.8704
303.0,38.0139,15.3165
305.0,38.7445,16.7836
307.0,38.1111,14.5476
309.0,37.5857,14.2798
311.0,37.9065,14.9974
313.0,37.2265,12.5771
315.0,36.2779,13.292
317.0,36.3461,14.0094
319.0,35.2243,11.0772
321.0,35.3573,12.3884
323.0,35.0174,13.1916
325.0,34.1108,9.85035
327.0,33.6591,11.4592
329.0,33.7812,10.9406
331.0,32.7266,8.21279
333.0,33.3128,10.5842
335.0,33.5795,10.3902
337.0,32.4229,7.51687
339.0,32.3798,10.3382
341.0,32.2782,8.965
343.0,31.5684,7.07429
345.0,32.0646,9.80103
347.0,32.3539,8.75442
349.0,31.5228,7.29543
351.0,31.6592,9.72868
353.0,31.5351,9.89546
355.0,31.1694,8.11853
357.0,31.0987,10.4859
359.0,30.4731,7.48197
361.0,29.7053,6.49585
363.0,29.6366,9.57017
365.0,29.3559,7.00109
367.0,29.0973,6.72687
369.0,28.6317,8.96646
371.0,31.618,3.12237
373.0,32.8366,2.34129
375.0,34.3505,1.41866
377.0,31.8261,1.0114
379.0,33.7658,2.50181
381.0,34.8609,2.54991
383.0,32.5454,3.20692
385.0,34.2516,0.508856
387.0,34.2495,3.42681
389.0,31.1679,0.958971
391.0,32.8514,2.70189
393.0,32.1681,1.70497
395.0,29.2567,0.48158
397.0,32.371,1.70746
399.0,31.4742,2.87287
401.0,29.636,1.29716
403.0,32.241,0.951303
405.0,30.6288,3.23596
407.0,29.1383,0.974843
409.0,31.6607,0.839991
411.0,29.5695,2.75852
413.0,28.5741,1.02301
415.0,31.0021,1.09552
417.0,29.6534,2.85357
419.0,29.064,0.425699
421.0,31.5171,0.295096
423.0,29.3734,2.40394
425.0,29.5161,1.37903
427.0,31.7926,0.972048
429.0,30.33,2.07599
431.0,31.6508,1.21834
433.0,34.002,0.18817
435.0,31.3556,1.31664
437.0,32.2351,2.08513
439.0,33.0251,0.808909
441.0,30.4157,1.08978
443.0,31.6427,1.80812
445.0,31.8619,0.685409
447.0,28.8515,0.913368
449.0,31.5066,1.366
451.0,31.5276,0.985543
453.0,29.1367,1.01358
455.0,31.943,1.85062
457.0,29.8976,0.397262
459.0,28.705,0.733182
461.0,31.7905,1.80663
463.0,30.75,0.861231
465.0,29.2995,0.455299
467.0,32.5275,1.13572
469.0,31.4004,0.215327
471.0,30.4599,1.11532
473.0,33.9607,1.22576
475.0,31.2413,0.196179
477.0,30.5054,0.699828
479.0,34.4693,1.25263
481.0,31.2764,2.27681
483.0,31.2511,0.67672
485.0,33.9769,0.758466
487.0,30.3151,1.09957
489.0,29.8387,1.37975
491.0,32.8031,0.0653783
493.0,29.2386,
495.0,31.194,
497.0,32.6486,
499.0,29.3103,
501.0,31.1564,
503.0,30.4303,
505.0,27.7437,
507.0,30.9716,
509.0,29.9421,
511.0,27.7893,
513.0,31.1012,
515.0,29.6892,
517.0,26.7883,
519.0,30.4597,