File: Exp-Data_Prepared-Final/FTT-White/2018/Cypress_50kW_hor_Average.csv
Time (s),HRRPUA (kW/m2),Uc HRRPUA (kW/m2)
0.0,1.73099,
3.0,-1.31482,
6.0,-0.330263,-2.09616
9.0,0.889171,1.88885
12.0,-0.838795,-0.981469
15.0,1.49898,2.61952
18.0,-0.377868,-0.938901
21.0,1.99916,3.13943
24.0,0.599877,1.82243
27.0,2.62395,4.89826
30.0,0.620068,2.39183
33.0,3.08934,3.61669
36.0,2.92844,3.35124
39.0,4.46263,5.35295
42.0,14.153,21.9191
45.0,60.146,46.0494
48.0,128.506,26.0204
51.0,173.336,12.4149
54.0,180.376,10.7997
57.0,174.53,12.6532
60.0,160.41,16.3862
63.0,146.012,9.47875
66.0,134.335,9.28296
69.0,127.124,3.58434
72.0,119.822,5.12632
75.0,116.157,1.17032
78.0,110.324,6.29861
81.0,107.692,1.0606
84.0,105.013,8.322
87.0,101.126,4.08748
90.0,99.8989,5.91452
93.0,98.1841,3.69875
96.0,95.6865,3.27381
99.0,94.3349,5.21521
102.0,93.3477,4.82378
105.0,90.3198,4.3229
108.0,90.2266,1.67592
111.0,86.5985,4.4243
114.0,89.5152,1.87106
117.0,85.4324,4.16176
120.0,85.8208,0.563246
123.0,82.6739,1.28112
126.0,84.7007,1.5241
129.0,81.4438,1.30654
132.0,81.6971,2.50057
135.0,77.9279,0.90855
138.0,78.5833,2.61182
141.0,76.2809,1.8967
144.0,79.3774,3.02732
147.0,76.5196,1.18752
150.0,78.3242,3.89298
153.0,75.7863,2.42377
156.0,76.6698,3.363
159.0,75.5893,3.63109
162.0,76.1893,3.84603
165.0,74.4907,4.0351
168.0,75.901,3.6162
171.0,74.7473,3.28466
174.0,74.9021,4.5237
177.0,74.5074,2.65397
180.0,73.6987,3.37365
183.0,73.4763,1.46672
186.0,73.8277,3.6117
189.0,74.38,1.43088
192.0,74.7698,5.1893
195.0,76.1685,2.96694
198.0,74.2105,5.23284
201.0,74.7305,1.98525
204.0,74.2872,1.56889
207.0,76.2015,3.10222
210.0,74.3951,4.95492
213.0,75.439,5.9008
216.0,73.8632,3.8811
219.0,74.7432,5.173
222.0,72.7588,3.19241
225.0,74.3164,4.29023
228.0,71.8115,1.99352
231.0,73.9009,4.3769
234.0,71.1658,0.839213
237.0,72.8619,2.66281
240.0,72.955,2.00048
243.0,73.6511,1.60467
246.0,72.0212,2.35656
249.0,74.3428,1.57224
252.0,72.8646,1.29629
255.0,74.4729,4.47047
258.0,74.4547,4.04058
261.0,76.6782,6.9927
264.0,76.0999,4.16162
267.0,75.5909,4.65995
270.0,74.128,1.58288
273.0,73.2887,2.09114
276.0,74.3694,2.91177
279.0,74.5543,1.48672
282.0,74.8789,3.9276
285.0,74.2953,0.530899
288.0,75.6993,3.90241
291.0,74.4858,1.40571
294.0,77.2423,5.57279
297.0,74.6518,3.27259
300.0,77.4672,6.15376
303.0,76.4522,3.8891
306.0,79.3099,6.95429
309.0,78.8562,5.81945
312.0,79.9699,7.42075
315.0,78.5327,7.17168
318.0,79.4964,5.5939
321.0,78.2417,6.92844
324.0,81.1213,6.22571
327.0,78.5668,5.39793
330.0,80.5803,4.7573
333.0,79.2094,6.3245
336.0,79.8592,4.11276
339.0,78.6217,7.28873
342.0,82.8898,4.69402
345.0,80.4235,7.17444
348.0,82.2886,4.67273
351.0,81.6992,6.54863
354.0,84.8031,4.81217
357.0,84.5778,8.43881
360.0,86.2607,5.23502
363.0,86.1308,8.98975
366.0,86.5654,3.97729
369.0,87.6498,8.37445
372.0,89.7471,3.9937
375.0,90.8146,9.13824
378.0,92.2078,5.09631
381.0,94.0995,9.78157
384.0,94.2358,6.09532
387.0,97.1788,9.12497
390.0,97.5572,7.67891
393.0,101.074,10.4416
396.0,101.156,5.95025
399.0,103.754,9.26441
402.0,103.937,6.5857
405.0,107.529,11.0412
408.0,108.109,9.74617
411.0,113.047,12.9905
414.0,111.476,10.9839
417.0,115.472,12.8474
420.0,116.472,13.8297
423.0,117.423,11.7193
426.0,117.584,12.2207
429.0,120.236,12.5749
432.0,121.643,10.9946
435.0,125.579,11.5866
438.0,127.825,10.3634
441.0,131.607,11.9021
444.0,131.552,12.9298
447.0,135.454,11.4331
450.0,137.12,11.2885
453.0,140.282,13.2102
456.0,141.686,13.7864
459.0,142.949,12.3017
462.0,146.374,11.7941
465.0,147.814,12.1246
468.0,148.407,14.088
471.0,148.909,8.97615
474.0,152.182,14.9095
477.0,155.625,13.6011
480.0,156.513,12.5812
483.0,155.923,10.9708
486.0,160.514,11.7659
489.0,160.627,13.1143
492.0,160.322,16.8071
495.0,159.961,14.6174
498.0,160.84,14.757
501.0,163.317,12.2403
504.0,165.247,13.0169
507.0,161.761,12.0145
510.0,164.423,11.8205
513.0,162.517,13.4287
516.0,162.418,16.2262
519.0,160.761,14.3613
522.0,159.288,17.3163
525.0,156.591,15.5113
528.0,157.308,17.2828
531.0,154.906,16.7097
534.0,154.71,21.8513
537.0,151.183,21.3622
540.0,150.57,22.8034
543.0,145.217,21.6381
546.0,144.574,25.1175
549.0,139.507,21.9466
552.0,138.632,26.8771
555.0,134.633,23.4564
558.0,132.263,24.8893
561.0,128.589,22.0026
564.0,123.912,24.1277
567.0,120.68,21.6444
570.0,118.14,26.7018
573.0,114.037,19.2076
576.0,109.296,24.4188
579.0,106.841,18.521
582.0,100.932,19.7824
585.0,98.6987,16.8282
588.0,93.8554,15.9835
591.0,93.9343,11.9364
594.0,89.1511,15.995
597.0,89.3813,12.8396
600.0,85.6843,14.6893
603.0,85.1375,11.9629
606.0,80.5632,13.1047
609.0,80.1067,10.1172
612.0,75.6719,9.1447
615.0,75.3878,8.69313
618.0,71.0915,7.52731
621.0,71.3052,7.25749
624.0,69.3435,7.95546
627.0,69.9355,7.42519
630.0,65.7671,6.32777
633.0,65.2969,7.51983
636.0,61.6046,5.68915
639.0,60.9968,7.21291
642.0,59.086,4.7817
645.0,58.7341,5.64558
648.0,54.0031,3.0133
651.0,54.1839,4.09367
654.0,52.4399,4.07196
657.0,51.4185,2.67243
660.0,49.8117,3.75356
663.0,48.8844,3.1597
666.0,47.8636,2.48745
669.0,47.2054,2.80891
672.0,47.478,2.96308
675.0,44.7807,2.36322
678.0,45.6125,2.86986
681.0,42.7285,3.89823
684.0,43.343,2.53872
687.0,40.7521,3.84042
690.0,41.7244,1.3542
693.0,39.3616,3.82298
696.0,41.4209,2.07571
699.0,39.175,4.11271
702.0,40.8993,1.1066
705.0,38.4817,2.94533
708.0,40.6801,2.87009
711.0,38.4116,3.23171
714.0,40.7009,2.14207
717.0,38.4978,1.75096
720.0,40.0178,2.36475
723.0,36.7023,1.38859
726.0,38.1353,2.88531
729.0,36.2094,0.336376
732.0,37.9508,2.85237
735.0,35.9899,0.548052
738.0,37.5612,3.47465
741.0,37.0591,0.435175
744.0,37.4589,3.97886
747.0,36.6867,1.20195
750.0,36.5758,3.28687
753.0,35.9276,0.453881
756.0,35.4977,5.22694
759.0,35.5504,1.83692
762.0,34.4939,4.83012
765.0,35.11,0.049608
768.0,34.6732,3.44623
771.0,35.1319,1.05776
774.0,34.0351,2.97538
777.0,35.59,0.0714212
780.0,34.0054,2.86896
783.0,35.3072,1.20106
786.0,33.0684,4.79509
789.0,34.4906,2.93309
792.0,33.6844,5.46146
795.0,35.1187,3.11376
798.0,33.5546,2.677
801.0,34.9918,1.75999
804.0,33.258,2.72261
807.0,34.1811,3.74142
810.0,29.4934,
813.0,31.0369,
816.0,32.199,
819.0,30.5658,
822.0,31.9258,
823.0,33.8206,