File: Exp-Data_Prepared-Final/FTT-White/2018/Ebony_50kW_hor_Average.csv
Time (s),HRRPUA (kW/m2),Uc HRRPUA (kW/m2)
0.0,-0.383942,-1.42561
4.0,-0.398415,-2.8692
8.0,0.754749,2.11999
12.0,1.01404,0.384453
16.0,-0.0613539,-2.19701
20.0,0.720593,0.494264
24.0,1.33369,2.76321
28.0,0.165457,1.30834
32.0,0.651093,2.73922
36.0,1.67068,3.77879
40.0,-0.105069,-0.755829
44.0,1.47644,1.98941
48.0,3.06595,2.23102
52.0,0.838561,2.43299
56.0,-0.648256,-2.23046
60.0,3.60514,3.29964
64.0,42.2607,71.6004
68.0,65.3342,107.552
72.0,115.925,100.648
76.0,148.814,83.6738
80.0,198.283,23.2746
84.0,200.109,41.406
88.0,183.075,36.1152
92.0,165.785,21.3918
96.0,156.269,18.4728
100.0,147.225,17.4471
104.0,138.711,9.98057
108.0,132.588,8.37544
112.0,127.597,9.84046
116.0,122.001,6.08904
120.0,120.068,3.20105
124.0,116.095,7.00194
128.0,111.461,5.95547
132.0,109.461,3.72007
136.0,109.796,6.59738
140.0,105.905,6.23422
144.0,103.496,5.49901
148.0,102.174,5.87453
152.0,100.118,7.65165
156.0,97.1983,4.97536
160.0,97.5614,5.7211
164.0,97.9013,8.55503
168.0,94.7303,4.9402
172.0,93.9321,6.03853
176.0,93.1736,8.93235
180.0,92.1217,6.24157
184.0,90.326,7.50371
188.0,90.9573,9.37707
192.0,88.6356,9.74737
196.0,87.2241,6.59764
200.0,88.749,8.54649
204.0,87.4532,7.89917
208.0,85.5179,6.82074
212.0,85.483,9.09353
216.0,85.0847,9.23056
220.0,81.8104,6.63892
224.0,81.1414,8.20361
228.0,81.6192,8.43474
232.0,80.8136,6.48213
236.0,80.8012,5.53072
240.0,81.041,7.47031
244.0,78.039,5.31761
248.0,78.2771,5.82643
252.0,80.3414,5.40595
256.0,76.5919,3.44233
260.0,76.3642,4.71096
264.0,77.3447,3.67056
268.0,77.0606,1.4823
272.0,75.854,3.25097
276.0,77.2606,2.6875
280.0,77.6518,4.41655
284.0,76.5978,3.12174
288.0,76.9204,2.63772
292.0,77.5907,3.19995
296.0,74.2929,0.521311
300.0,76.1872,2.83537
304.0,77.9096,0.946197
308.0,76.344,1.44547
312.0,76.8535,1.85639
316.0,78.7008,1.27883
320.0,76.9516,0.372737
324.0,75.9505,3.53004
328.0,77.1277,1.76677
332.0,76.5827,2.58993
336.0,76.4963,1.58623
340.0,77.8631,1.97108
344.0,78.7684,3.82501
348.0,77.8493,0.796864
352.0,77.7894,1.92359
356.0,78.6987,6.56064
360.0,78.0475,3.07028
364.0,79.8588,1.94168
368.0,81.089,5.97973
372.0,79.279,5.40292
376.0,80.0013,3.10713
380.0,80.4278,6.20536
384.0,82.6782,4.20132
388.0,83.0696,1.4143
392.0,82.5249,3.62032
396.0,82.5185,4.36138
400.0,81.6308,0.61024
404.0,81.9047,3.5126
408.0,84.1175,7.04966
412.0,82.4934,3.5846
416.0,83.1767,2.00364
420.0,85.0381,5.47472
424.0,83.8246,3.43823
428.0,84.914,1.26553
432.0,85.2561,5.73742
436.0,83.4635,5.00514
440.0,85.3288,1.7063
444.0,86.3128,5.54136
448.0,84.871,5.23382
452.0,87.3271,1.98036
456.0,89.936,6.59649
460.0,92.0672,5.80481
464.0,90.7227,2.12106
468.0,93.239,3.40171
472.0,93.8155,3.78913
476.0,94.7448,2.21936
480.0,97.1106,2.83663
484.0,99.3353,5.06523
488.0,99.9568,3.20515
492.0,102.023,1.16934
496.0,105.618,6.17325
500.0,105.223,4.91949
504.0,109.537,5.13335
508.0,109.576,6.23249
512.0,113.403,5.674
516.0,118.541,4.13808
520.0,119.22,4.90764
524.0,122.412,5.45745
528.0,128.765,3.31198
532.0,137.424,2.36562
536.0,142.698,2.384
540.0,149.811,6.52483
544.0,155.051,5.56694
548.0,167.512,6.4234
552.0,174.914,11.129
556.0,179.925,12.1524
560.0,192.436,8.41814
564.0,201.256,14.3873
568.0,209.721,9.81746
572.0,216.782,12.5728
576.0,224.326,13.7968
580.0,232.889,16.1542
584.0,238.138,26.471
588.0,245.038,27.768
592.0,250.376,23.5278
596.0,254.384,30.1007
600.0,257.948,24.9984
604.0,260.765,20.2534
608.0,263.642,23.6191
612.0,268.667,24.468
616.0,269.807,23.3695
620.0,273.083,19.9376
624.0,280.504,25.6103
628.0,281.039,25.0726
632.0,280.269,25.854
636.0,285.858,27.8763
640.0,286.974,33.0575
644.0,282.612,29.2255
648.0,279.18,35.5113
652.0,277.011,32.1313
656.0,262.583,30.9838
660.0,254.886,33.1846
664.0,242.431,36.9868
668.0,227.951,33.1884
672.0,221.817,35.7736
676.0,218.849,35.8302
680.0,209.802,29.5022
684.0,201.289,26.8199
688.0,193.487,31.407
692.0,183.1,27.0543
696.0,171.942,24.1726
700.0,163.525,25.6575
704.0,151.669,17.6463
708.0,141.332,12.7777
712.0,130.665,15.0263
716.0,123.655,13.9572
720.0,114.083,7.40402
724.0,109.726,6.49211
728.0,103.152,7.59177
732.0,97.3429,4.68915
736.0,92.9729,4.27678
740.0,87.4295,6.46514
744.0,81.0124,4.36624
748.0,77.4805,2.68165
752.0,76.3602,3.08748
756.0,71.8186,2.26566
760.0,70.0913,3.23244
764.0,68.8499,0.423391
768.0,66.1107,0.584748
772.0,65.37,3.5513
776.0,66.6837,1.57284
780.0,65.0561,1.5329
784.0,62.7934,6.59754
788.0,63.5302,4.39019
792.0,63.637,1.72842
796.0,61.3541,5.78205
800.0,61.9141,8.07433
804.0,64.4038,5.80838
808.0,61.4644,7.86663
812.0,61.5566,12.1953
816.0,62.9909,9.34383
820.0,61.7454,11.2176
824.0,60.5382,13.4333
828.0,60.3871,8.32286
832.0,59.1015,7.08181
836.0,58.3683,9.73987
840.0,59.4036,7.18001
844.0,57.373,5.47171
848.0,55.4351,10.5176
852.0,55.9169,6.92279
856.0,56.7449,5.17216
860.0,54.6913,9.13797
864.0,54.9966,7.80575
868.0,55.848,2.57336
872.0,54.099,6.38095
876.0,53.9044,8.52245
880.0,54.2288,4.02196
884.0,52.5243,5.84137
888.0,51.4734,7.41109
892.0,52.6095,3.86449
896.0,50.8885,4.12344
900.0,49.9688,7.73877
904.0,52.3652,4.2403
908.0,52.071,4.37591
912.0,51.9488,9.12179
916.0,52.6597,6.23906
920.0,49.8816,2.45567
924.0,50.525,6.66873
928.0,51.2238,7.04571
932.0,51.2563,2.70168
936.0,48.9069,6.57498
940.0,49.286,6.33614
944.0,48.9026,0.477014
948.0,50.506,
952.0,52.4394,
956.0,49.3115,
960.0,48.6412,
964.0,51.3384,
967.0,47.2449,