File: Exp-Data_Prepared-Final/FTT-White/2018/Fir_50kW_hor_Average.csv
Time (s),HRRPUA (kW/m2),Uc HRRPUA (kW/m2)
0.0,-1.27919,-0.0164571
3.0,1.30486,1.83407
6.0,0.645062,2.71271
9.0,1.85076,3.04677
12.0,0.945998,2.13496
15.0,1.18025,2.70767
18.0,0.532815,1.92345
21.0,0.701477,3.48121
24.0,-0.263983,-1.46757
27.0,-0.577063,-2.46622
30.0,-0.910906,-1.90952
33.0,24.5053,41.0365
36.0,78.5829,74.5274
39.0,111.548,111.431
42.0,144.249,88.8507
45.0,190.568,7.84159
48.0,194.724,27.8231
51.0,182.607,28.9126
54.0,166.507,22.6244
57.0,154.134,19.5827
60.0,143.25,14.4429
63.0,132.89,13.6715
66.0,125.591,8.5982
69.0,120.949,11.5173
72.0,115.229,8.06427
75.0,110.853,8.78007
78.0,107.996,7.61031
81.0,104.17,6.38544
84.0,100.017,8.34864
87.0,97.2185,7.48445
90.0,94.9104,8.19431
93.0,92.8213,5.54073
96.0,92.5211,8.88494
99.0,91.3533,5.33977
102.0,89.8989,8.6936
105.0,87.1644,6.91197
108.0,87.0099,7.3101
111.0,86.4966,6.51324
114.0,88.8951,10.1529
117.0,86.738,6.26533
120.0,87.5407,9.47002
123.0,85.7997,7.71165
126.0,84.8376,9.98848
129.0,83.4856,8.75146
132.0,83.5633,12.4681
135.0,82.9239,9.52643
138.0,81.1475,13.1853
141.0,80.1264,8.99655
144.0,82.4422,14.0358
147.0,83.5972,11.6404
150.0,83.9746,14.316
153.0,84.5437,11.5162
156.0,83.8978,14.4635
159.0,83.8077,10.9854
162.0,85.2726,12.9219
165.0,84.4401,10.8004
168.0,85.0419,11.5822
171.0,84.932,10.1075
174.0,84.4948,11.8987
177.0,84.981,9.1858
180.0,84.1015,11.565
183.0,84.9485,9.50525
186.0,84.5675,9.19804
189.0,86.2881,8.71767
192.0,85.9412,9.05829
195.0,84.8877,8.67453
198.0,83.4213,7.20531
201.0,84.8762,9.1673
204.0,83.5393,6.42214
207.0,84.0426,7.82037
210.0,82.7024,6.86377
213.0,82.16,8.28265
216.0,80.1212,7.69188
219.0,81.918,10.4519
222.0,81.7275,7.24371
225.0,81.3375,10.8627
228.0,79.9935,8.44836
231.0,80.7462,11.7713
234.0,79.6613,9.51773
237.0,80.4226,10.7793
240.0,79.3355,9.04872
243.0,78.8107,10.3455
246.0,78.1461,7.53423
249.0,78.4123,9.67845
252.0,77.4544,7.32305
255.0,78.1139,9.26509
258.0,77.8857,9.24644
261.0,78.1966,9.62121
264.0,78.5417,10.4447
267.0,79.3297,9.29271
270.0,80.5064,11.9757
273.0,79.4981,10.8217
276.0,79.0245,11.6973
279.0,78.3566,11.2265
282.0,79.5822,13.2771
285.0,79.422,12.2942
288.0,79.7708,14.3824
291.0,78.5993,10.6253
294.0,79.1203,14.2942
297.0,78.7118,11.1965
300.0,79.7083,13.7469
303.0,79.8674,10.1568
306.0,80.9727,13.0527
309.0,82.1831,11.1302
312.0,84.459,12.7728
315.0,85.1828,10.52
318.0,85.7374,12.4456
321.0,87.5067,9.03629
324.0,89.3603,12.8083
327.0,89.3151,8.83342
330.0,90.9092,11.1175
333.0,92.7509,6.9811
336.0,94.9415,11.0519
339.0,95.5288,7.35462
342.0,96.9802,9.26851
345.0,98.6381,6.4315
348.0,101.831,7.03912
351.0,102.613,5.13311
354.0,104.726,6.30806
357.0,107.169,4.06151
360.0,107.665,5.38864
363.0,111.571,5.30671
366.0,113.439,5.12046
369.0,116.287,5.8187
372.0,118.038,4.82769
375.0,120.644,5.00564
378.0,124.041,2.11011
381.0,126.956,1.0894
384.0,130.107,1.45716
387.0,135.358,2.67337
390.0,137.474,1.94482
393.0,139.494,4.28244
396.0,142.351,3.25003
399.0,145.559,2.99931
402.0,147.635,3.10955
405.0,148.967,7.51135
408.0,149.573,4.69538
411.0,152.941,6.16829
414.0,151.993,5.76952
417.0,152.679,8.54124
420.0,152.672,10.798
423.0,155.588,16.3977
426.0,154.059,18.3315
429.0,156.859,21.9579
432.0,157.68,21.3179
435.0,159.148,20.2477
438.0,161.615,19.4794
441.0,161.851,17.435
444.0,164.812,19.9383
447.0,163.547,17.5848
450.0,166.991,18.6364
453.0,169.316,15.6293
456.0,170.344,15.5002
459.0,170.59,14.2485
462.0,172.655,14.7884
465.0,172.38,11.4085
468.0,171.256,15.0813
471.0,171.321,16.419
474.0,171.233,19.4844
477.0,169.49,13.7505
480.0,166.845,18.2103
483.0,166.788,18.0225
486.0,167.044,16.4227
489.0,162.125,13.9178
492.0,159.326,19.7247
495.0,155.034,17.9798
498.0,150.412,20.3503
501.0,145.912,20.0539
504.0,143.083,28.2524
507.0,136.666,24.8228
510.0,129.934,28.8734
513.0,123.783,25.6171
516.0,117.734,26.0481
519.0,111.8,24.3611
522.0,106.314,24.5822
525.0,102.714,22.4986
528.0,98.0195,23.0899
531.0,92.9331,22.5147
534.0,89.5711,20.5839
537.0,84.456,22.7584
540.0,80.3488,20.5393
543.0,75.7849,21.021
546.0,72.4186,17.3005
549.0,68.5545,18.6849
552.0,65.3323,13.716
555.0,61.4663,18.7067
558.0,60.2785,15.646
561.0,58.4735,17.6015
564.0,56.4357,13.4649
567.0,55.8091,15.2158
570.0,54.7488,10.671
573.0,52.4371,12.7846
576.0,49.968,8.51481
579.0,49.3678,12.1894
582.0,49.3633,7.11259
585.0,49.7757,7.61421
588.0,48.0089,5.4578
591.0,46.5515,8.20523
594.0,43.9546,6.48322
597.0,43.493,9.02868
600.0,41.7635,6.77629
603.0,42.6404,6.96602
606.0,42.4304,5.86171
609.0,42.8361,7.86402
612.0,41.8683,6.32269
615.0,42.0564,6.66014
618.0,41.2201,6.17802
621.0,41.1124,5.8176
624.0,41.4359,5.89056
627.0,40.9339,4.69286
630.0,39.8262,5.62262
633.0,39.5166,3.4461
636.0,39.103,3.92591
639.0,37.2061,2.01845
642.0,37.0504,3.86745
645.0,36.5372,1.41514
648.0,36.6022,4.33897
651.0,35.3732,1.25069
654.0,35.4629,5.23287
657.0,35.2428,1.24914
660.0,35.4353,4.6905
663.0,34.6206,1.36647
666.0,34.8445,4.4364
669.0,34.5249,1.19303
672.0,35.1477,4.01273
675.0,33.8406,2.39449
678.0,34.201,4.99384
681.0,33.8355,1.82996
684.0,34.5014,4.77563
687.0,33.4919,1.54093
690.0,35.5294,0.455117
693.0,32.8618,2.98626
696.0,35.2202,0.781332
699.0,32.0388,2.17156
702.0,33.9628,0.891694
705.0,31.9448,1.59798
708.0,34.5378,1.4051
711.0,33.286,2.82964
714.0,33.8753,1.48964
717.0,33.1491,2.66844
720.0,33.107,
723.0,35.203,
726.0,32.2835,
729.0,34.8451,
732.0,30.9639,
735.0,33.9691,
738.0,30.929,
741.0,34.2864,
744.0,31.1071,
747.0,34.4716,
750.0,30.9521,
753.0,35.0716,
755.0,31.538,