File: Exp-Data_Prepared-Final/FTT-White/2018/Ipe_50kW_hor_Average.csv
Time (s),HRRPUA (kW/m2),Uc HRRPUA (kW/m2)
0.0,-0.0116926,-1.75581
4.0,0.928878,3.66958
8.0,3.35032,9.86169
12.0,4.93843,17.2544
16.0,8.82201,30.8179
20.0,15.5639,44.8538
24.0,18.3365,52.1514
28.0,20.8829,59.7628
32.0,32.6662,63.1854
36.0,46.7591,61.6857
40.0,62.0512,65.205
44.0,84.6758,73.6812
48.0,101.376,79.7407
52.0,117.746,85.4229
56.0,133.018,93.3207
60.0,141.633,95.6814
64.0,147.936,86.4032
68.0,168.409,68.3659
72.0,186.048,46.0504
76.0,200.284,14.0528
80.0,209.091,22.603
84.0,208.177,29.6917
88.0,200.816,28.4628
92.0,192.396,22.7973
96.0,187.553,21.2179
100.0,184.296,21.4324
104.0,176.698,16.4215
108.0,171.68,14.6968
112.0,169.547,15.8156
116.0,165.474,11.1156
120.0,166.083,9.99875
124.0,161.371,12.2453
128.0,158.006,9.71254
132.0,155.352,8.74986
136.0,154.869,10.393
140.0,150.73,10.074
144.0,148.44,9.78079
148.0,147.542,8.76853
152.0,147.475,9.3387
156.0,146.122,9.00041
160.0,146.521,10.8939
164.0,144.67,10.1268
168.0,144.143,9.27627
172.0,144.588,9.25789
176.0,143.722,9.01873
180.0,142.192,7.51028
184.0,142.62,7.21747
188.0,144.433,7.95882
192.0,144.259,6.79433
196.0,144.26,7.11609
200.0,144.367,6.11212
204.0,144.16,6.9322
208.0,145.521,7.77032
212.0,146.487,8.3248
216.0,144.505,8.04523
220.0,144.928,8.86452
224.0,145.572,8.94958
228.0,145.011,8.63861
232.0,145.899,9.12399
236.0,146.613,8.69361
240.0,147.906,10.8047
244.0,145.837,9.3566
248.0,147.482,9.64786
252.0,146.899,7.89625
256.0,145.314,6.60518
260.0,146.681,7.20683
264.0,146.57,7.49204
268.0,146.516,5.99777
272.0,147.181,6.21484
276.0,147.782,8.48541
280.0,146.443,4.16755
284.0,145.792,4.64897
288.0,147.489,6.72044
292.0,145.938,6.02337
296.0,145.21,6.36834
300.0,146.541,8.50703
304.0,144.888,6.99445
308.0,143.894,8.16671
312.0,143.203,10.323
316.0,144.283,12.8105
320.0,142.549,10.5963
324.0,140.689,12.4105
328.0,140.684,15.643
332.0,139.333,11.5693
336.0,140.109,13.583
340.0,140.53,13.8846
344.0,139.782,12.8241
348.0,140.694,11.2831
352.0,140.675,13.3502
356.0,140.149,12.988
360.0,140.499,13.4829
364.0,142.199,13.7866
368.0,142.001,12.734
372.0,140.698,9.65413
376.0,143.542,10.7539
380.0,145.86,10.5008
384.0,146.489,10.7326
388.0,146.558,11.8101
392.0,148.581,11.8395
396.0,152.086,8.21068
400.0,154.044,9.89685
404.0,155.553,8.95038
408.0,156.936,7.65162
412.0,158.151,9.79543
416.0,162.303,11.3994
420.0,163.864,9.73174
424.0,165.02,11.5466
428.0,166.161,11.2927
432.0,166.3,11.723
436.0,171.38,14.3398
440.0,173.675,17.4403
444.0,177.247,17.1358
448.0,179.187,20.7697
452.0,185.83,22.9529
456.0,189.981,23.5337
460.0,195.114,27.1279
464.0,193.968,31.8344
468.0,200.871,33.654
472.0,206.672,37.7531
476.0,211.625,42.1317
480.0,217.435,46.9379
484.0,225.34,49.0068
488.0,232.889,55.1165
492.0,242.937,59.9709
496.0,250.777,65.982
500.0,258.63,70.102
504.0,268.664,74.3995
508.0,271.073,72.6599
512.0,278.451,76.114
516.0,286.848,80.3715
520.0,295.38,78.4117
524.0,304.396,80.3574
528.0,306.083,76.4956
532.0,314.195,77.4416
536.0,319.884,74.4772
540.0,323.215,74.4367
544.0,329.162,69.772
548.0,340.555,66.5792
552.0,344.522,64.7557
556.0,348.226,60.6811
560.0,352.374,59.2742
564.0,359.697,53.9655
568.0,363.584,53.4138
572.0,366.077,45.4219
576.0,366.496,40.1003
580.0,366.812,39.7365
584.0,365.579,37.374
588.0,368.223,38.6808
592.0,359.866,37.1917
596.0,350.974,35.9334
600.0,337.199,38.2562
604.0,332.133,40.8465
608.0,322.198,49.0637
612.0,312.437,56.9098
616.0,302.999,67.8229
620.0,293.57,78.3084
624.0,282.178,83.8141
628.0,276.02,92.2807
632.0,265.444,98.4876
636.0,257.071,105.384
640.0,248.249,111.474
644.0,240.762,117.069
648.0,233.052,121.384
652.0,221.413,122.68
656.0,215.505,121.836
660.0,205.681,121.249
664.0,196.467,120.104
668.0,186.673,116.147
672.0,176.847,114.022
676.0,166.823,110.441
680.0,158.592,108.146
684.0,150.047,106.822
688.0,140.455,102.4
692.0,131.019,95.358
696.0,122.572,90.7775
700.0,114.986,86.5459
704.0,108.693,78.2176
708.0,103.6,73.0031
712.0,98.5541,70.1334
716.0,94.3046,66.0206
720.0,90.3013,58.7494
724.0,86.0694,53.5467
728.0,81.9899,46.9213
732.0,78.4916,38.8323
736.0,74.9679,33.4717
740.0,72.6327,28.2121
744.0,69.5261,23.48
748.0,68.2807,21.0747
752.0,67.0626,18.8653
756.0,64.5116,14.0286
760.0,63.5453,12.3054
764.0,62.4893,11.9928
768.0,61.0948,9.27877
772.0,60.6245,7.77045
776.0,59.9183,8.51958
780.0,59.2803,6.94287
784.0,58.8873,5.75612
788.0,58.7949,7.6868
792.0,58.0565,7.27824
796.0,58.3001,6.65312
800.0,58.0855,7.25486
804.0,57.4024,7.28909
808.0,58.0412,5.47962
812.0,57.2396,6.6634
816.0,56.6467,6.98125
820.0,57.0336,5.58743
824.0,57.2495,5.77339
828.0,56.8776,5.74536
832.0,56.3034,5.41422
836.0,55.1727,6.09467
840.0,56.091,6.01248
844.0,55.4352,4.84358
848.0,55.1153,5.36892
852.0,55.3379,5.23373
856.0,54.1529,4.48455
860.0,54.122,5.27919
864.0,55.405,5.86022
868.0,54.5563,4.32404
872.0,54.3377,4.50841
876.0,54.4325,5.18549
880.0,54.9209,4.8811
884.0,53.3225,5.36232
888.0,55.6351,3.73401
892.0,54.559,3.70014
896.0,50.0721,5.00721
900.0,52.2435,4.96671
904.0,54.3403,3.44166
908.0,53.0067,2.61793
912.0,55.6347,4.99277
916.0,52.4212,1.73428
920.0,50.4739,2.98098
924.0,54.2283,2.4702
928.0,54.2442,2.304
932.0,52.5263,3.14534
936.0,52.782,
940.0,53.4913,
944.0,48.6748,
948.0,49.2427,
950.0,49.5852,