File: Exp-Data_Prepared-Final/FTT-White/2018/Pine_50kW_hor_Average.csv
Time (s),HRRPUA (kW/m2),Uc HRRPUA (kW/m2)
0.0,-0.756465,-1.45603
3.0,0.395684,1.63331
6.0,-0.450167,-1.50154
9.0,0.296446,1.53355
12.0,-0.22501,-1.94526
15.0,0.248939,1.99053
18.0,0.218459,1.40469
21.0,0.109929,2.79533
24.0,1.6116,2.79876
27.0,0.556844,4.55275
30.0,1.46864,4.72542
33.0,24.3978,58.2675
36.0,54.0096,97.7756
39.0,105.951,94.4419
42.0,175.373,73.0005
45.0,204.569,24.6923
48.0,195.412,26.4156
51.0,169.856,23.9721
54.0,148.991,17.6676
57.0,131.082,11.6886
60.0,122.647,9.44784
63.0,112.866,7.28723
66.0,108.038,6.75924
69.0,101.988,5.71569
72.0,101.004,7.41705
75.0,95.9495,7.42813
78.0,95.1744,7.2403
81.0,91.6693,6.69786
84.0,90.7827,7.10616
87.0,87.1046,7.36136
90.0,87.7655,8.30623
93.0,84.0733,8.2936
96.0,83.9527,8.70546
99.0,82.3381,8.1235
102.0,81.4788,8.21905
105.0,79.8997,8.11829
108.0,78.9788,7.38595
111.0,77.6954,8.43955
114.0,76.9646,7.28658
117.0,76.5932,7.25232
120.0,75.2927,6.35246
123.0,75.4394,7.2103
126.0,74.1727,6.53968
129.0,74.1407,6.24927
132.0,72.2556,6.60828
135.0,73.9158,9.19573
138.0,71.2839,7.67713
141.0,73.3794,10.1287
144.0,70.0997,8.36021
147.0,72.6734,10.3778
150.0,69.4605,9.632
153.0,71.6359,10.4095
156.0,68.3081,9.10389
159.0,70.2296,9.46484
162.0,67.7063,8.6201
165.0,70.0477,9.23252
168.0,65.7909,7.16805
171.0,67.5737,8.55285
174.0,66.1538,7.90887
177.0,67.4626,8.07929
180.0,66.045,8.61724
183.0,68.3201,9.61488
186.0,66.435,8.58652
189.0,67.2034,8.89019
192.0,67.108,9.01609
195.0,66.7171,9.03757
198.0,66.0788,8.15601
201.0,68.0185,9.03236
204.0,67.1424,9.28433
207.0,66.5216,8.29985
210.0,66.9829,8.33847
213.0,67.5859,8.65963
216.0,68.4991,7.91218
219.0,67.1865,7.66995
222.0,68.3779,8.23576
225.0,67.3414,8.03249
228.0,67.9672,8.57453
231.0,66.5861,7.81553
234.0,68.8302,9.0557
237.0,66.4666,9.30115
240.0,70.1797,9.42607
243.0,68.5464,9.18839
246.0,70.984,10.808
249.0,67.4975,10.5756
252.0,70.5577,10.5209
255.0,66.2347,8.91888
258.0,69.2082,10.79
261.0,67.2031,10.781
264.0,70.0695,12.5775
267.0,68.1726,12.9556
270.0,71.008,14.5627
273.0,68.7991,14.72
276.0,71.2835,15.9561
279.0,69.2205,15.7446
282.0,70.8691,16.2596
285.0,70.3319,17.5199
288.0,72.2555,16.572
291.0,71.4254,17.4487
294.0,71.8796,18.0403
297.0,72.5431,20.1049
300.0,73.2868,19.4669
303.0,73.9219,20.7825
306.0,73.8293,19.409
309.0,75.4232,21.3995
312.0,75.0151,21.2523
315.0,76.7022,23.1558
318.0,76.6838,23.8744
321.0,79.2439,26.2514
324.0,78.2693,26.6467
327.0,82.2124,28.0429
330.0,80.3246,29.029
333.0,83.3684,29.8296
336.0,81.3427,28.5491
339.0,85.1544,31.543
342.0,83.8448,29.9002
345.0,87.8894,33.1508
348.0,85.7708,32.707
351.0,89.0684,32.809
354.0,87.559,32.2021
357.0,91.8604,33.2083
360.0,90.4118,31.9646
363.0,93.9411,31.8699
366.0,93.085,34.4177
369.0,96.4927,33.9708
372.0,95.4991,32.4051
375.0,97.8072,31.1621
378.0,97.2418,31.5436
381.0,99.8572,31.5562
384.0,99.8362,31.5634
387.0,102.515,30.4955
390.0,103.475,30.1075
393.0,105.35,27.9057
396.0,106.833,27.2283
399.0,107.695,25.2361
402.0,108.45,24.9389
405.0,110.534,22.5113
408.0,111.927,22.2073
411.0,112.32,19.0512
414.0,114.641,19.6315
417.0,114.562,15.8588
420.0,118.218,16.322
423.0,117.032,14.1854
426.0,120.446,13.7342
429.0,118.344,13.2912
432.0,121.009,11.2829
435.0,119.436,12.6794
438.0,122.515,11.6979
441.0,121.148,12.0818
444.0,125.694,13.913
447.0,124.012,13.4958
450.0,125.427,13.3533
453.0,124.73,16.4719
456.0,125.032,14.6946
459.0,123.819,17.3425
462.0,126.963,17.2589
465.0,122.737,19.3471
468.0,125.129,20.3659
471.0,123.805,21.6202
474.0,124.738,23.1607
477.0,123.397,23.609
480.0,123.665,25.8938
483.0,121.024,25.3723
486.0,121.38,27.6748
489.0,120.996,27.7444
492.0,118.871,28.8466
495.0,118.127,27.7339
498.0,116.503,28.5755
501.0,117.56,28.5817
504.0,114.527,31.0606
507.0,114.778,29.7678
510.0,112.679,31.9592
513.0,112.557,31.2433
516.0,108.787,32.3735
519.0,108.321,30.0134
522.0,106.198,32.0167
525.0,106.819,30.9186
528.0,102.486,32.2948
531.0,104.109,30.9719
534.0,99.9475,30.8024
537.0,99.635,29.2841
540.0,95.2709,30.1101
543.0,95.2743,29.0516
546.0,91.4501,29.1651
549.0,91.8548,28.5749
552.0,87.0409,27.8676
555.0,86.7612,27.6032
558.0,82.1806,26.533
561.0,83.0493,27.0245
564.0,79.0052,26.8019
567.0,79.1466,27.3522
570.0,75.8922,25.834
573.0,75.6706,26.8552
576.0,72.7717,24.9618
579.0,71.4331,25.3042
582.0,69.9908,22.749
585.0,68.4951,22.6245
588.0,66.5835,19.9117
591.0,64.0983,21.1517
594.0,63.2472,18.3336
597.0,60.3753,18.7026
600.0,59.9591,14.9411
603.0,57.3034,16.7742
606.0,57.3131,14.2252
609.0,54.2812,15.0474
612.0,54.9424,11.9163
615.0,52.3652,12.7298
618.0,53.0012,9.61473
621.0,50.1424,11.2409
624.0,51.5809,8.9186
627.0,47.8844,10.4172
630.0,49.5572,8.40543
633.0,46.4118,8.66945
636.0,48.194,7.42024
639.0,45.0358,8.11989
642.0,47.5871,5.5927
645.0,43.4144,5.47925
648.0,44.6649,4.87493
651.0,41.0494,4.53756
654.0,42.356,4.97194
657.0,40.2625,3.71747
660.0,41.8338,4.68885
663.0,38.9519,2.95902
666.0,39.9046,4.6234
669.0,38.5509,3.36483
672.0,37.9942,3.72682
675.0,36.4369,2.04203
678.0,36.4492,2.95436
681.0,36.497,2.54611
684.0,35.6025,3.3703
687.0,35.722,1.43494
690.0,34.8793,1.98259
693.0,35.4868,1.82232
696.0,34.2633,2.44043
699.0,34.8433,1.95902
702.0,33.3602,2.22172
705.0,35.0751,1.9564
708.0,33.1969,1.38544
711.0,35.0086,3.28397
714.0,32.7072,1.81467
717.0,34.6793,4.16097
720.0,32.5506,1.21232
723.0,35.2185,3.65835
726.0,32.9482,0.894967
729.0,35.4119,3.24706
732.0,32.5382,1.49562
735.0,34.3958,3.04981
738.0,31.5363,2.07658
741.0,34.2413,3.21521
744.0,32.4608,1.51203
747.0,34.2785,3.801
750.0,32.5079,1.33822
753.0,33.7795,3.6137
756.0,31.7393,1.45274
759.0,32.9496,3.11997
762.0,32.0833,1.73456
765.0,32.8566,2.33473
768.0,31.8996,1.73557
771.0,32.2395,2.85646
774.0,31.8756,2.59863
777.0,33.1575,2.7616
780.0,32.2871,1.70903
783.0,32.8389,2.55519
786.0,31.8404,1.57416
789.0,31.9657,1.42267
792.0,31.2881,1.46272
795.0,29.9301,2.34108
798.0,32.467,1.8911
801.0,30.7759,3.54482
804.0,32.5606,0.391099
806.0,31.9084,