File: Exp-Data_Prepared-Final/FTT-White/2018/RedCedar_30kW_vert_Average.csv
Time (s),HRRPUA (kW/m2),Uc HRRPUA (kW/m2)
0.0,0.297648,1.13994
6.0,2.58666,3.75632
12.0,2.53042,2.47339
18.0,1.76073,2.11904
24.0,1.35537,2.75275
30.0,0.675554,3.25464
36.0,-0.0279871,-2.62024
42.0,0.140886,2.03154
48.0,0.0856639,1.84235
54.0,0.791877,0.646159
60.0,1.26382,1.56163
66.0,0.653621,1.79423
72.0,-0.957547,-1.28894
78.0,-0.155778,-2.76349
84.0,0.483903,2.51961
90.0,0.403971,2.581
96.0,0.377773,1.40348
102.0,-0.126104,-2.6021
108.0,1.34969,2.92055
114.0,1.25626,2.73188
120.0,1.13998,2.90493
126.0,1.00263,2.87153
132.0,0.992292,2.98956
138.0,2.48418,3.41018
144.0,2.60655,3.06717
150.0,3.55149,0.589226
156.0,4.20347,0.322383
162.0,4.73694,2.60462
168.0,3.88555,2.22379
174.0,4.79048,2.1016
180.0,6.20009,2.51127
186.0,6.95569,0.769615
192.0,6.96481,0.533126
198.0,7.92685,2.13493
204.0,8.71515,2.27396
210.0,9.55282,2.6439
216.0,10.5946,2.48902
222.0,11.2733,2.89329
228.0,11.2699,2.81494
234.0,11.7763,1.8494
240.0,12.0869,2.84302
246.0,12.6114,2.67904
252.0,12.093,1.04146
258.0,13.1046,1.31015
264.0,13.8124,1.19491
270.0,14.2164,1.41215
276.0,14.7596,0.886385
282.0,15.9139,2.73591
288.0,16.7116,3.05541
294.0,16.1021,2.67199
300.0,17.5419,3.04311
306.0,18.4593,3.49039
312.0,18.2032,4.18284
318.0,18.03,4.91231
324.0,17.7095,5.08652
330.0,17.9019,4.04002
336.0,17.8481,4.09258
342.0,17.7387,3.05338
348.0,18.3237,3.96398
354.0,19.1879,3.10725
360.0,19.4401,2.32109
366.0,19.0564,1.38173
372.0,18.7062,0.74516
378.0,18.212,0.659495
384.0,19.9528,0.913898
390.0,19.7735,0.370498
396.0,21.1126,0.236214
402.0,20.2955,1.19404
408.0,21.1941,1.65635
414.0,21.6557,0.533676
420.0,21.1137,1.14232
426.0,20.4841,0.539551
432.0,20.7925,1.87735
438.0,21.1736,1.73034
444.0,20.8806,1.14253
450.0,21.199,0.76893
456.0,20.639,1.56411
462.0,20.7022,2.10566
468.0,20.8821,1.68496
474.0,19.2928,3.22082
480.0,19.0221,3.34985
486.0,18.9011,3.41929
492.0,19.5172,4.5022
498.0,20.5327,3.718
504.0,19.682,2.81865
510.0,20.4626,3.47631
516.0,19.5926,3.54628
522.0,19.3964,3.04762
528.0,19.1715,1.76004
534.0,19.8697,1.64032
540.0,19.0722,2.13536
546.0,18.2433,0.794959
552.0,19.4875,1.79616
558.0,19.8819,2.08134
564.0,19.6894,1.45334
570.0,19.4882,0.211672
576.0,19.3758,0.385581
582.0,20.3719,1.69271
588.0,20.6425,1.53071
594.0,21.3263,1.92314
600.0,22.4157,2.17351
606.0,21.7796,0.9804
612.0,20.9704,2.15604
618.0,21.6449,2.52353
624.0,21.034,2.09196
630.0,21.2418,2.20744
636.0,20.565,1.4687
642.0,19.7793,0.313303
648.0,20.1983,0.846087
654.0,20.0553,0.928248
660.0,20.847,1.98548
666.0,20.7498,1.54388
672.0,20.1131,3.0873
678.0,19.6711,3.72405
684.0,18.8958,3.0602
690.0,20.6798,1.99952
696.0,20.566,2.77626
702.0,20.5785,3.39068
708.0,20.1985,3.12515
714.0,20.0318,2.31102
720.0,19.6045,2.81464
726.0,20.2264,3.07408
732.0,20.4968,2.01421
738.0,22.8599,1.75013
744.0,22.1768,0.830028
750.0,22.7141,0.822356
756.0,22.6084,1.20612
762.0,22.0294,0.685757
768.0,21.8827,0.934453
774.0,22.3385,1.90827
780.0,22.8057,1.42444
786.0,22.776,2.39384
792.0,23.4816,2.62223
798.0,24.3394,1.73503
804.0,24.0084,3.41881
810.0,24.3272,4.85633
816.0,23.7536,4.77757
822.0,23.4799,3.092
828.0,23.7272,3.86151
834.0,24.1007,3.07669
840.0,23.6024,4.51934
846.0,21.7981,4.57041
852.0,22.4554,4.37889
858.0,22.0776,3.33154
864.0,22.6504,3.17606
870.0,24.5147,2.65823
876.0,24.3619,2.49252
882.0,24.7968,2.44687
888.0,25.5767,4.63572
894.0,25.6328,3.43082
900.0,25.0873,4.75892
906.0,27.239,5.3226
912.0,26.4356,4.05358
918.0,26.2725,4.28553
924.0,25.774,4.56916
930.0,26.7544,5.41479
936.0,26.9004,4.35826
942.0,27.313,5.53286
948.0,28.3148,6.95347
954.0,27.1507,7.03655
960.0,27.8526,8.44849
966.0,28.6395,9.39461
972.0,29.5993,12.055
978.0,29.6789,11.6563
984.0,31.1267,13.1249
990.0,24.2634,4.60263
996.0,25.272,4.60421
1002.0,24.334,4.27092
1008.0,23.3011,4.83639
1014.0,24.6781,2.57004
1020.0,24.6325,1.91973
1026.0,26.9636,0.985929
1032.0,27.1407,1.69978
1038.0,25.8635,1.25911
1044.0,25.4628,0.0201207
1050.0,26.588,0.338493
1056.0,27.8629,0.733182
1062.0,28.4829,0.623881
1068.0,27.1086,1.52493
1074.0,28.2098,4.24356
1080.0,27.1846,3.15832
1086.0,28.3084,4.17507
1092.0,29.0765,1.83358
1098.0,29.0787,2.48476
1104.0,28.9694,3.08947
1110.0,29.1483,0.647228
1116.0,29.9738,1.81696
1122.0,31.1464,2.94653
1128.0,31.8264,0.521066
1134.0,31.6487,0.164848
1140.0,31.2836,1.19391
1146.0,31.4183,0.887912
1152.0,30.6915,0.180079
1158.0,32.0607,1.39853
1164.0,32.5016,3.64342
1170.0,30.6352,2.70443
1176.0,33.3321,6.04061
1182.0,32.6613,7.8086
1188.0,33.0018,6.61092
1194.0,34.1614,5.19865
1200.0,34.9466,2.85433
1206.0,34.9707,4.63796
1212.0,33.8309,4.61576
1218.0,33.5274,3.08094
1224.0,34.2808,5.70947
1230.0,35.7335,7.29074
1236.0,36.2466,6.09995
1242.0,36.0271,6.17085
1248.0,36.1394,7.94338
1254.0,37.7387,4.14288
1260.0,38.889,4.30307
1266.0,39.2815,4.36952
1272.0,40.4831,5.129
1278.0,42.025,3.59523
1284.0,41.2417,6.54635
1290.0,41.4567,5.82218
1296.0,42.6571,6.72397
1302.0,41.5571,10.3974
1308.0,41.1437,10.4881
1314.0,42.962,12.609
1320.0,44.3686,13.0673
1326.0,42.6996,11.9534
1332.0,42.7787,13.1459
1338.0,42.9239,12.9872
1344.0,43.7458,14.4086
1350.0,43.3731,16.407
1356.0,42.9713,15.2225
1362.0,42.6715,15.7465
1368.0,44.4007,18.0332
1374.0,43.4547,17.9288
1380.0,42.9844,16.9474
1386.0,41.8883,15.3364
1392.0,42.8918,15.3411
1398.0,41.3999,15.5297
1404.0,42.4871,14.2153
1410.0,41.5641,13.2296
1416.0,39.4853,12.5278
1422.0,39.4924,11.6802
1428.0,41.2544,10.3223
1434.0,41.9211,9.53545
1440.0,41.3701,11.8912
1446.0,42.3711,12.4586
1452.0,41.6216,10.0143
1458.0,41.1482,11.7794
1464.0,43.348,11.4208
1470.0,42.0929,11.5664
1476.0,42.3271,10.1756
1482.0,43.5382,10.1427
1488.0,35.0523,
1494.0,36.1637,
1500.0,36.7882,