File: Exp-Data_Prepared-Final/FTT-White/2018/RedCedar_50kW_hor_Average.csv
Time (s),HRRPUA (kW/m2),Uc HRRPUA (kW/m2)
0.0,0.0629486,2.57109
3.0,-0.0660397,-1.88663
6.0,1.057,1.62766
9.0,0.173549,1.86705
12.0,0.641782,2.48117
15.0,-0.107112,-1.73805
18.0,0.646921,2.88989
21.0,0.243633,2.76133
24.0,0.857543,3.58196
27.0,0.195072,3.90749
30.0,10.3868,33.3672
33.0,62.6358,58.5989
36.0,125.129,82.2765
39.0,155.634,86.3782
42.0,183.02,36.5501
45.0,190.66,28.3185
48.0,183.708,49.0499
51.0,171.236,47.3105
54.0,155.753,40.2753
57.0,143.179,32.325
60.0,135.153,28.473
63.0,126.506,25.4339
66.0,122.608,24.5622
69.0,117.516,23.1663
72.0,115.115,20.7114
75.0,111.505,19.503
78.0,108.194,19.9436
81.0,104.987,18.7309
84.0,102.49,15.4955
87.0,100.417,16.8854
90.0,97.7921,15.1352
93.0,96.4541,14.9788
96.0,95.8608,13.2829
99.0,94.4622,14.3814
102.0,92.0885,12.8658
105.0,90.3345,11.469
108.0,88.616,11.5043
111.0,88.0089,11.7347
114.0,85.9615,10.7436
117.0,86.2999,11.6276
120.0,84.0389,11.7848
123.0,83.0877,9.4741
126.0,81.2107,10.1413
129.0,81.1285,10.1919
132.0,79.2059,11.5407
135.0,79.3691,9.53212
138.0,77.7059,11.3918
141.0,77.6834,9.99223
144.0,75.1992,11.6231
147.0,75.8904,10.7509
150.0,74.6996,11.0592
153.0,73.3542,9.16921
156.0,72.7325,11.3038
159.0,73.2825,8.81162
162.0,72.3247,9.69478
165.0,72.2963,9.0603
168.0,71.3588,9.36996
171.0,71.1879,8.94153
174.0,72.1071,9.22678
177.0,71.1501,9.13252
180.0,70.3202,8.69955
183.0,71.0601,9.32889
186.0,71.0694,9.17227
189.0,69.9197,9.36758
192.0,69.9839,9.35655
195.0,70.9033,10.7549
198.0,70.4377,9.41652
201.0,69.1095,10.4725
204.0,70.7785,9.5256
207.0,69.3583,10.3124
210.0,69.3274,8.83508
213.0,68.0412,10.3011
216.0,69.9988,9.40292
219.0,69.5065,10.7618
222.0,69.5166,8.85153
225.0,68.2469,9.40409
228.0,69.5322,7.56934
231.0,68.6195,8.87779
234.0,68.6399,7.93456
237.0,67.1719,8.69012
240.0,69.2592,7.01063
243.0,68.8464,8.03759
246.0,68.2053,6.5125
249.0,67.973,7.69114
252.0,69.7811,7.39675
255.0,68.7557,8.68352
258.0,68.9985,7.52955
261.0,68.384,7.91179
264.0,69.6334,7.17275
267.0,68.2572,7.99972
270.0,69.0687,7.4382
273.0,70.7812,6.748
276.0,71.3021,6.21049
279.0,71.0322,6.99418
282.0,71.1118,6.89856
285.0,72.6456,6.13014
288.0,72.2083,5.55802
291.0,72.3915,5.76017
294.0,73.0505,5.9431
297.0,75.2507,5.78327
300.0,74.0178,6.65413
303.0,75.1138,6.4146
306.0,75.9729,6.07889
309.0,78.1675,5.28714
312.0,77.9682,6.39943
315.0,79.4118,5.27848
318.0,79.4301,5.98328
321.0,80.9789,5.89273
324.0,80.5603,6.49792
327.0,81.8541,5.41018
330.0,83.2629,7.51174
333.0,84.3485,6.96375
336.0,84.0335,6.71414
339.0,87.3322,5.41541
342.0,86.7335,8.60414
345.0,88.7356,6.64117
348.0,89.5484,7.63329
351.0,91.7853,7.75891
354.0,91.5226,8.48317
357.0,92.554,7.75315
360.0,92.6082,9.21924
363.0,95.2146,7.48159
366.0,95.4016,8.43446
369.0,97.167,7.15505
372.0,98.0521,9.26668
375.0,99.8683,8.55007
378.0,100.241,8.79359
381.0,102.244,8.09434
384.0,104.006,9.68742
387.0,103.991,8.62484
390.0,104.856,8.4888
393.0,105.046,7.74202
396.0,106.634,8.75784
399.0,107.369,8.80969
402.0,108.161,8.21597
405.0,108.551,7.7825
408.0,111.202,8.8079
411.0,111.041,7.9997
414.0,111.31,7.35952
417.0,111.048,8.41381
420.0,113.895,8.62649
423.0,113.038,8.46459
426.0,113.876,8.16616
429.0,111.581,8.53378
432.0,113.042,9.36182
435.0,111.764,6.84162
438.0,111.433,8.59792
441.0,110.87,7.5418
444.0,111.632,8.70742
447.0,109.897,8.34758
450.0,109.902,12.6629
453.0,109.089,13.4189
456.0,108.492,14.3236
459.0,107.919,15.3826
462.0,107.199,16.9636
465.0,104.914,18.127
468.0,104.237,20.1034
471.0,103.977,21.8179
474.0,102.016,23.7142
477.0,99.9708,25.9271
480.0,98.6921,27.4949
483.0,98.0617,28.3556
486.0,96.8788,29.7906
489.0,94.9263,31.1569
492.0,93.6827,31.5777
495.0,93.4402,32.7371
498.0,91.2327,34.096
501.0,90.5236,35.0847
504.0,88.2632,33.2955
507.0,88.7806,33.4905
510.0,86.1493,34.9949
513.0,86.5128,34.6628
516.0,84.6191,35.4
519.0,84.0979,35.3667
522.0,80.9044,36.7882
525.0,80.4062,35.8995
528.0,78.6652,36.2511
531.0,77.2672,34.7471
534.0,75.0861,36.0292
537.0,75.2554,35.344
540.0,74.1023,35.7004
543.0,73.5723,34.9526
546.0,71.8473,37.1171
549.0,71.6917,35.7597
552.0,70.2607,36.3202
555.0,68.9339,36.2435
558.0,67.9854,38.933
561.0,66.3507,37.6629
564.0,64.6513,36.6304
567.0,63.0924,36.9999
570.0,63.0065,37.0625
573.0,62.5344,35.9412
576.0,62.3459,35.7362
579.0,60.5869,36.7732
582.0,60.1601,36.2758
585.0,59.2299,35.6845
588.0,58.8669,35.0999
591.0,56.6797,36.3326
594.0,57.1119,33.9397
597.0,55.8335,33.9053
600.0,56.035,32.9837
603.0,54.243,33.6173
606.0,53.9603,32.0298
609.0,52.8157,31.7301
612.0,52.8321,28.8036
615.0,51.5358,29.7702
618.0,54.0819,28.4574
621.0,52.6408,30.2727
624.0,52.4624,27.5308
627.0,50.6571,29.1831
630.0,50.1601,25.6548
633.0,48.4565,24.0242
636.0,47.8139,21.9815
639.0,46.1919,22.4019
642.0,45.6123,20.2286
645.0,43.9595,19.5136
648.0,44.409,17.7749
651.0,42.8802,17.249
654.0,41.7931,14.9958
657.0,41.2914,14.9709
660.0,40.7028,13.5781
663.0,39.4331,12.9581
666.0,38.8489,11.8042
669.0,38.6041,10.0792
672.0,37.5408,8.97675
675.0,36.5408,7.92153
678.0,35.8818,7.84094
681.0,36.3018,5.93716
684.0,34.8889,7.32621
687.0,34.7387,5.25343
690.0,34.614,6.44635
693.0,35.2896,4.40248
696.0,34.3311,5.97219
699.0,35.4684,3.35757
702.0,34.0719,6.08263
705.0,34.5999,3.64491
708.0,33.8119,5.78082
711.0,34.6222,3.45435
714.0,32.924,5.53281
717.0,34.2409,2.50856
720.0,32.7107,4.96955
723.0,34.9788,2.98607
726.0,33.8022,5.85814
729.0,34.8994,3.05187
732.0,33.156,4.45153
735.0,34.2487,2.63004
738.0,32.9098,4.18876
741.0,33.6095,2.5892
744.0,32.4279,4.00268
747.0,33.6403,2.73296
750.0,33.1352,3.91133
753.0,34.238,2.563
756.0,32.8308,4.09258
759.0,33.7524,2.27747
762.0,32.4166,4.2954
765.0,33.218,2.50741
768.0,32.0976,3.79197
771.0,32.5787,3.28415
774.0,32.7417,4.98427
777.0,33.4001,5.81746
780.0,32.8099,5.10032
783.0,34.0379,5.24564
786.0,34.022,3.56848
789.0,34.5537,3.74257
792.0,32.2861,1.65032
794.0,35.5333,