File: Exp-Data_Prepared-Final/FTT-White/2018/RedCedar_25kW_vert_Average.csv
Time (s),HRRPUA (kW/m2),Uc HRRPUA (kW/m2)
0.0,0.525447,3.81585
5.0,2.0625,1.61902
10.0,1.82995,3.05017
15.0,0.550936,1.28448
20.0,0.0754529,1.58568
25.0,-1.37809,-1.6048
30.0,-1.34291,-2.35662
35.0,0.117725,2.54433
40.0,0.439842,1.82796
45.0,0.0154989,1.52642
50.0,-0.334565,-2.02697
55.0,-2.62874,-0.301992
60.0,-3.07993,-1.33478
65.0,-2.00801,-2.16317
70.0,-0.298384,-2.30536
75.0,1.15977,1.35897
80.0,1.89068,1.50606
85.0,0.601649,2.67414
90.0,0.111575,1.71518
95.0,-0.704944,-0.690998
100.0,-0.0317562,-1.74344
105.0,1.73908,2.41949
110.0,2.52423,1.49608
115.0,2.24284,1.01324
120.0,1.59049,1.80369
125.0,0.027879,0.541235
130.0,-0.495352,-0.362825
135.0,-0.854474,-1.09505
140.0,0.145985,2.24
145.0,1.96413,0.249508
150.0,2.42231,2.22198
155.0,2.21472,2.92736
160.0,1.52713,3.15806
165.0,0.472255,1.82604
170.0,-1.17322,-1.21564
175.0,0.988168,0.837576
180.0,1.87799,1.3059
185.0,4.02942,1.28616
190.0,2.89163,2.90878
195.0,1.9961,2.04867
200.0,0.752492,1.63716
205.0,0.495295,0.246276
210.0,1.80203,1.43522
215.0,4.44535,0.320563
220.0,5.93917,1.5832
225.0,5.48412,3.12437
230.0,4.65197,2.7199
235.0,4.15771,1.69702
240.0,4.64288,1.1541
245.0,6.17092,1.19256
250.0,7.17354,1.00113
255.0,8.90503,2.60171
260.0,8.41381,4.27179
265.0,8.10594,5.14974
270.0,6.70259,5.00944
275.0,8.69246,4.22774
280.0,10.3584,2.29096
285.0,12.2893,2.01352
290.0,14.5362,4.01902
295.0,15.0438,4.80435
300.0,13.5302,4.70209
305.0,12.3357,2.52074
310.0,11.7525,1.60571
315.0,13.6214,1.70317
320.0,15.4053,1.38001
325.0,15.6686,1.44242
330.0,16.6264,3.10558
335.0,16.3968,4.07032
340.0,15.12,2.89256
345.0,14.5659,2.37404
350.0,15.2632,1.38806
355.0,16.2322,1.98963
360.0,17.2267,0.387797
365.0,18.7513,2.23694
370.0,18.2906,1.43988
375.0,16.3466,1.57872
380.0,16.2985,0.535595
385.0,16.8195,1.05855
390.0,18.6634,2.51553
395.0,20.5543,1.47172
400.0,19.6455,2.49213
405.0,19.0919,2.48601
410.0,19.262,1.23399
415.0,19.2344,0.636754
420.0,19.6062,1.0662
425.0,20.3696,1.20213
430.0,20.9451,0.667739
435.0,21.9092,1.64028
440.0,21.742,1.58755
445.0,19.5716,1.78133
450.0,18.9474,0.460896
455.0,19.3118,1.64588
460.0,19.9567,2.84339
465.0,21.394,1.68447
470.0,22.6659,0.904304
475.0,21.131,0.712728
480.0,18.8037,1.90145
485.0,17.6982,3.42489
490.0,19.0859,3.54123
495.0,21.0398,4.26594
500.0,21.8108,3.44676
505.0,23.1406,1.61956
510.0,21.7541,2.30797
515.0,20.6218,1.9238
520.0,19.337,2.92485
525.0,20.4215,3.36675
530.0,20.9393,3.98362
535.0,21.0978,2.8152
540.0,22.0856,1.51807
545.0,22.2274,1.10153
550.0,21.3199,3.21379
555.0,19.8209,4.2298
560.0,20.436,6.46412
565.0,22.8939,9.59406
570.0,32.8317,
575.0,26.3776,
580.0,25.901,
585.0,27.3964,
590.0,31.0334,
595.0,34.105,
600.0,28.1909,
605.0,30.7752,
610.0,32.6245,
615.0,33.909,
620.0,25.2403,
625.0,25.8986,
630.0,30.6918,
635.0,37.4346,
640.0,36.7054,
645.0,30.5029,
650.0,31.9569,
655.0,34.149,
660.0,38.3927,
665.0,29.1806,
670.0,30.5336,
675.0,35.4894,
680.0,35.9847,
685.0,31.969,
690.0,29.9301,
695.0,31.0873,
700.0,34.2384,
705.0,39.1283,
710.0,33.4432,
715.0,33.1523,
720.0,32.5849,
725.0,33.6148,
730.0,29.594,
735.0,28.5703,
740.0,33.2887,
745.0,37.171,
750.0,34.8341,
755.0,30.2503,
760.0,28.1235,
765.0,30.0842,
770.0,31.4317,
775.0,32.2792,
780.0,35.4916,
785.0,36.2803,
790.0,33.0625,
795.0,31.8785,
800.0,30.3685,
805.0,30.189,
810.0,31.5619,
815.0,32.7543,
820.0,34.376,
825.0,32.0675,
830.0,30.2117,
835.0,29.4136,
840.0,29.5064,
845.0,31.1776,
850.0,31.3126,
855.0,30.4056,
860.0,27.6977,
865.0,27.9547,
870.0,28.3067,
875.0,28.5022,
880.0,28.6619,
885.0,32.1867,
890.0,33.1913,
895.0,29.057,
900.0,25.8352,
905.0,27.412,
910.0,28.9317,
915.0,28.5133,
920.0,30.6271,
925.0,31.5793,
930.0,32.5973,
935.0,29.7493,
940.0,29.4317,
945.0,28.5335,
950.0,31.6019,
955.0,32.1669,
960.0,32.8834,
965.0,30.4624,
970.0,30.0692,
975.0,31.1574,
980.0,30.1111,
985.0,31.4495,
990.0,32.9198,
995.0,34.5409,
1000.0,31.7015,
1005.0,29.1227,
1010.0,29.2391,
1015.0,29.0245,
1020.0,32.4804,
1025.0,32.4981,
1030.0,34.1427,
1035.0,31.5827,
1040.0,30.6252,
1045.0,29.6393,
1050.0,29.6036,
1055.0,30.1171,
1060.0,31.7475,
1065.0,32.5376,
1070.0,32.1006,
1075.0,30.7983,
1080.0,28.2558,
1085.0,28.8508,
1090.0,29.5763,
1095.0,31.4403,
1100.0,33.7569,
1105.0,34.1847,
1110.0,30.5442,
1115.0,28.8176,
1120.0,29.1811,
1125.0,31.2989,
1130.0,33.403,
1135.0,34.0639,
1140.0,32.6629,
1145.0,30.7073,
1150.0,31.3922,
1155.0,30.243,
1160.0,31.1922,
1165.0,32.2073,
1170.0,34.6061,
1175.0,32.7604,
1180.0,30.701,
1185.0,29.495,
1190.0,29.5976,
1195.0,30.4472,
1200.0,32.8614,