File: Exp-Data_Prepared-Final/FTT-White/2019/Balsa_20kW_vert_Average.csv
Time (s),HRRPUA (kW/m2),Uc HRRPUA (kW/m2)
4.0,-0.318564,-3.89301
7.0,-0.542924,-2.85769
10.0,-1.78453,-3.50671
13.0,-0.588985,-3.09099
16.0,-1.08355,-3.33823
19.0,-0.134314,-3.55166
22.0,-0.717783,-3.27772
25.0,0.221342,3.48801
28.0,-0.653424,-3.28836
31.0,-0.204972,-3.58396
34.0,-0.964458,-3.6665
37.0,-0.619641,-3.99255
40.0,-1.8678,-2.88211
43.0,-0.758143,-4.24785
46.0,-0.906659,-2.45678
49.0,-0.346822,-4.30874
52.0,-1.18194,-2.67481
55.0,-0.649391,-4.18661
58.0,-1.00704,-2.34063
61.0,-0.910649,-3.85246
64.0,-0.470861,-2.22993
67.0,-0.293075,-3.55862
70.0,0.213481,2.70917
73.0,0.185839,4.15623
76.0,0.664285,4.26948
79.0,0.62012,5.1035
82.0,2.08165,5.33847
85.0,1.1894,5.3559
88.0,1.85112,5.84551
91.0,1.18326,5.38107
94.0,2.96189,6.83135
97.0,1.6291,5.7594
100.0,2.86564,6.58852
103.0,1.00274,5.82854
106.0,2.88914,6.99862
109.0,1.32572,5.91702
112.0,3.22884,7.34444
115.0,1.69068,6.28747
118.0,3.28799,7.94141
121.0,2.85421,5.49175
124.0,4.04029,8.32692
127.0,3.42324,5.88783
130.0,4.30491,7.58206
133.0,4.47068,4.95005
136.0,5.38716,7.10335
139.0,5.71173,5.89072
142.0,6.09842,8.14765
145.0,6.60933,6.4805
148.0,6.66982,8.67823
151.0,7.15648,7.05297
154.0,7.26257,8.09272
157.0,7.83188,6.47478
160.0,7.85006,7.47218
163.0,8.7731,5.95707
166.0,8.61221,7.01198
169.0,9.58203,5.71937
172.0,8.9895,6.83316
175.0,10.8159,6.02386
178.0,10.5435,6.61941
181.0,12.1481,6.44295
184.0,11.613,6.86215
187.0,12.6847,7.85778
190.0,11.6964,7.11108
193.0,13.4678,7.30855
196.0,12.6306,6.30588
199.0,14.2343,6.66329
202.0,13.1088,5.46204
205.0,12.8854,6.49996
208.0,12.0081,6.01948
211.0,11.9074,6.07206
214.0,12.5402,4.21757
217.0,13.1349,5.58704
220.0,13.6645,3.965
223.0,14.1444,5.45712
226.0,14.5523,3.78178
229.0,15.1725,5.41787
232.0,15.5613,3.59686
235.0,15.8379,5.46853
238.0,16.0546,3.60828
241.0,16.0887,5.09365
244.0,16.466,2.90315
247.0,16.5668,5.12726
250.0,17.4764,3.03831
253.0,17.0465,4.37268
256.0,17.819,2.39338
259.0,18.1807,2.71913
262.0,17.5575,2.01267
265.0,18.0176,4.06859
268.0,17.9201,1.29534
271.0,18.5453,3.4173
274.0,18.7241,1.88769
277.0,18.8756,3.02404
280.0,19.0384,2.84993
283.0,18.4359,2.53532
286.0,17.6838,3.79844
289.0,17.862,2.66331
292.0,17.716,3.2515
295.0,17.3561,2.02614
298.0,17.2385,2.8172
301.0,16.5597,1.52352
304.0,17.4899,2.1344
307.0,17.5361,1.58801
310.0,19.3004,1.52225
313.0,18.644,2.19421
316.0,18.7953,1.02971
319.0,19.1897,1.74108
322.0,19.2369,0.637888
325.0,18.9943,0.462203
328.0,17.9483,1.75045
331.0,18.2679,1.3584
334.0,18.2172,3.13592
337.0,18.5624,1.58538
340.0,18.5038,3.78288
343.0,19.1096,1.39831
346.0,18.5248,3.16157
349.0,18.8058,1.35849
352.0,17.3403,3.63594
355.0,18.8969,1.60431
358.0,17.8539,3.61448
361.0,18.8205,2.36913
364.0,17.6613,3.86123
367.0,19.0299,2.286
370.0,17.6991,4.08322
373.0,19.5466,3.512
376.0,17.8382,3.86709
379.0,19.325,1.9172
382.0,18.612,3.57095
385.0,18.745,1.52015
388.0,19.9778,3.45939
391.0,20.8882,1.13824
394.0,20.7581,4.38975
397.0,18.6542,0.429378
400.0,19.3662,2.54237
403.0,18.448,2.72611
406.0,19.4611,0.925737
409.0,17.3985,2.14114
412.0,17.8407,1.14105
415.0,16.5053,0.272376
418.0,17.9982,0.70558
421.0,16.6821,0.012268
424.0,17.6525,0.711894
427.0,16.6514,0.14269
430.0,17.7109,1.256
433.0,16.1431,0.382083
436.0,16.8386,3.3595
439.0,15.1544,0.220948
442.0,17.4234,2.88155
445.0,17.1934,2.77485
448.0,18.6096,0.830592
451.0,18.0102,3.61937
454.0,19.5103,2.37885
457.0,17.97,2.7873
460.0,17.0314,2.22739
463.0,16.8953,3.77536
466.0,16.4028,3.71312
469.0,16.4113,1.48982
472.0,19.3824,
475.0,14.2287,
478.0,18.9781,
481.0,15.8471,
484.0,19.6972,
487.0,17.2049,
490.0,18.397,
493.0,16.3312,
496.0,19.0291,
499.0,15.9922,
502.0,16.224,
505.0,14.9339,
508.0,16.145,
511.0,14.2676,
514.0,13.6646,
517.0,14.1868,
520.0,12.7375,
523.0,13.2049,
526.0,13.2296,
529.0,16.1933,
532.0,14.4371,
535.0,18.0712,
538.0,16.3238,
541.0,18.9631,
544.0,15.3019,
547.0,18.5916,
550.0,15.2957,
553.0,20.9421,
556.0,16.2393,
559.0,21.1618,
562.0,16.2818,
565.0,20.1599,
568.0,13.369,
571.0,16.8217,
574.0,12.3312,
577.0,17.1953,
580.0,14.621,
583.0,15.9524,
586.0,13.0938,
589.0,16.8832,
592.0,14.4856,
595.0,15.1906,
598.0,15.2307,
601.0,16.7237,
604.0,16.3943,
607.0,17.9283,
610.0,16.0917,
613.0,16.926,
616.0,16.9531,
619.0,16.5436,
622.0,18.2015,
625.0,14.3849,
628.0,16.1812,
631.0,15.1221,
634.0,19.3998,
637.0,15.9497,
640.0,19.7185,
643.0,14.3691,
646.0,18.8718,
649.0,14.6928,
652.0,19.3262,
655.0,15.6679,
658.0,21.7254,
661.0,16.8053,
664.0,20.88,
667.0,15.5637,
670.0,20.4574,
673.0,15.3244,
676.0,18.0992,
679.0,14.2825,
682.0,17.8624,
685.0,11.388,
688.0,15.0348,
691.0,13.5999,
694.0,15.7939,
697.0,14.0493,
700.0,15.252,
703.0,14.2995,
706.0,14.4715,
709.0,15.1566,
712.0,15.3134,
715.0,16.0609,
718.0,14.1063,
721.0,14.392,
724.0,13.5002,
727.0,14.8765,
730.0,11.3783,
733.0,14.4608,
736.0,12.3262,
739.0,16.1009,
742.0,11.3823,
745.0,17.5207,
748.0,12.7519,
751.0,16.0856,
754.0,9.99996,
757.0,16.0633,
760.0,10.2074,
763.0,15.1044,
766.0,12.6222,
769.0,17.9065,
772.0,12.6774,
775.0,15.6274,
778.0,12.4033,
781.0,15.921,
784.0,11.8189,
787.0,13.2921,
790.0,10.8373,
793.0,12.493,
796.0,12.1253,
799.0,13.6468,
802.0,11.6984,
805.0,13.1699,
808.0,14.2478,
811.0,12.9542,
814.0,13.5781,
817.0,12.6702,
820.0,13.3795,
823.0,11.3075,
826.0,13.8616,
829.0,11.9058,
832.0,15.4676,
835.0,11.1082,
838.0,14.6041,
841.0,9.57379,
844.0,15.0083,
847.0,11.395,
850.0,15.0342,
853.0,10.9551,
856.0,15.7957,
859.0,10.2759,
862.0,15.2715,
864.0,12.3865,